#Wave		#Intensity
899.963257	40.654552
899.920715	31.620207
899.878235	31.615133
899.835815	40.641506
899.793274	27.089989
899.750793	22.571367
899.708252	27.081295
899.665771	27.076948
899.623230	13.536302
899.580688	45.113766
899.538208	9.021305
899.495667	31.569500
899.453186	31.564434
899.410645	45.084812
899.368103	45.077579
899.325623	22.535173
899.283020	36.050491
899.240540	18.022354
899.197998	22.524326
899.155396	45.041424
899.112854	36.027359
899.070312	49.529671
899.027771	36.015797
898.985229	22.506262
898.942688	22.502651
898.900085	40.498272
898.857544	13.497258
898.814941	17.993458
898.772400	35.981140
898.729797	26.981525
898.687256	35.969597
898.644714	26.972868
898.602112	26.968542
898.559570	44.940357
898.516907	44.933147
898.474304	26.955564
898.431763	13.475619
898.389221	35.929222
898.346558	26.942593
898.304016	13.469135
898.261353	17.955965
898.218750	58.347527
898.176147	44.875515
898.133606	35.894653
898.090942	58.319450
898.048340	17.941568
898.005676	53.816071
897.963074	26.903719
897.920471	44.832340
897.877808	13.447544
897.835205	22.408979
897.792542	40.329693
897.749939	26.882149
897.707275	53.755672
897.664673	35.831367
897.622009	31.347418
897.579346	40.297356
897.536743	44.767658
897.494080	44.760479
897.451477	53.703960
897.408752	26.847673
897.366089	22.369473
897.323425	62.624477
897.280823	22.362297
897.238098	40.245678
897.195435	44.710251
897.152710	53.643696
897.110046	26.817545
897.067383	49.157616
897.024719	40.213417
896.982056	26.804646
896.939331	40.200520
896.896667	40.194073
896.854004	58.048794
896.811279	49.110332
896.768555	31.247019
896.725830	13.389432
896.683167	44.624283
896.640442	49.078838
896.597778	26.765982
896.555054	35.682255
896.512268	66.893494
896.469604	40.129662
896.426880	49.039497
896.384094	49.031635
896.341431	44.567066
896.298706	40.103928
896.255920	53.463329
896.213257	44.545631
896.170532	53.446186
896.127747	40.078213
896.085022	44.524204
896.042236	53.420479
895.999512	22.254965
895.956787	53.403351
895.913940	35.596523
895.871216	48.937374
895.828430	26.688833
895.785767	57.816532
895.742981	57.807262
895.700195	48.905994
895.657410	48.898155
895.614624	40.001167
895.571838	71.101784
895.529114	44.431488
895.486267	31.097055
895.443481	62.184139
895.400757	44.410122
895.357910	53.283604
895.315125	22.197943
895.272339	53.266518
895.229553	62.134308
895.186768	26.624722
895.143921	48.804161
895.101135	44.360310
895.058350	75.400436
895.015442	53.215302
894.972656	31.037283
894.929871	48.765057
894.887024	53.189713
894.844238	31.022360
894.801392	48.741608
894.758545	39.873104
894.715698	39.866711
894.672913	31.002472
894.630066	75.279648
894.587219	57.557564
894.544373	48.694744
894.501526	30.982597
894.458679	70.806015
894.415894	61.945332
894.372986	57.511444
894.330078	44.232483
894.287292	66.338089
894.244446	70.749283
894.201538	66.316826
894.158691	39.783718
894.115845	53.036453
894.072876	57.446949
894.030029	48.601166
893.987183	61.846115
893.944275	44.168716
893.901428	61.826290
893.858521	66.231834
893.815552	66.221222
893.772766	48.554443
893.729858	57.373329
893.686951	61.776760
893.644043	52.943020
893.601135	39.700901
893.558167	48.515549
893.515320	44.097973
893.472412	83.772720
893.429504	26.450304
893.386536	61.707485
893.343689	74.918510
893.300720	39.656384
893.257812	61.677822
893.214844	61.667938
893.171936	48.445614
893.129028	57.244732
893.086060	48.430088
893.043091	74.834503
893.000183	52.815891
892.957275	70.409904
892.914307	57.198879
892.871338	105.581009
892.828430	79.173065
892.785461	57.171383
892.742493	65.956413
892.699524	43.963894
892.656555	52.748219
892.613525	61.529728
892.570618	79.096970
892.527649	70.297157
892.484619	61.500153
892.441711	35.137314
892.398682	61.480446
892.355652	43.907566
892.312744	57.070690
892.269775	70.229591
892.226746	70.218338
892.183777	52.655319
892.140686	92.132042
892.097717	43.865372
892.054749	57.015846
892.011719	57.006710
891.968750	87.688576
891.925720	65.755898
891.882751	70.128380
891.839722	65.734825
891.796692	56.961052
891.753662	43.809174
891.710632	78.843880
891.667603	61.313190
891.624573	21.894060
891.581482	78.805992
891.538513	87.548180
891.495422	65.650612
891.452454	43.760063
891.409363	65.629578
891.366272	61.244461
891.323242	69.982452
891.280273	83.090851
891.237122	65.587532
891.194092	61.205223
891.151062	74.308723
891.107971	78.667213
891.064880	48.066708
891.021851	78.642014
890.978760	69.892815
890.935730	82.984413
890.892639	69.870422
890.849548	43.662014
890.806458	69.848030
890.763367	65.472038
890.720276	39.276932
890.677185	61.087662
890.634155	69.803284
890.591003	74.154114
890.547913	43.613075
890.504761	69.769745
890.461731	69.758568
890.418579	65.388184
890.375488	61.019192
890.332336	69.725052
890.289246	60.999645
890.246155	91.484810
890.203003	60.980103
890.159912	74.035408
890.116760	60.960567
890.073669	113.194351
890.030457	78.352768
889.987366	65.283508
889.944214	82.679199
889.901062	73.964279
889.857910	56.551857
889.814758	60.892246
889.771606	65.231239
889.728516	82.613007
889.685364	69.557701
889.642212	86.933205
889.598999	91.265244
889.555908	86.905357
889.512695	73.857719
889.469543	86.877518
889.426392	82.520424
889.383240	60.794781
889.340027	69.468620
889.296875	82.480774
889.253723	82.467567
889.210449	91.133759
889.167297	43.390079
889.124146	69.413002
889.080933	95.427597
889.037781	91.075386
888.994507	65.043427
888.951294	86.710686
888.908081	86.696793
888.864868	108.353638
888.821716	82.335571
888.778503	95.320656
888.735291	90.973328
888.692078	82.296021
888.648804	73.621490
888.605652	77.939682
888.562378	60.610043
888.519226	43.285954
888.475952	82.230141
888.432739	112.507431
888.389465	108.162895
888.346252	77.864815
888.303040	82.177475
888.259766	99.462059
888.216492	86.474899
888.173279	99.430206
888.130066	73.480125
888.086731	112.363365
888.043457	82.098541
888.000244	99.366531
887.956970	112.309387
887.913696	99.334702
887.870483	112.273422
887.827209	86.350342
887.783936	94.970161
887.740601	86.322685
887.697327	60.416203
887.654053	77.665535
887.610779	90.595284
887.567505	86.267403
887.524231	94.878944
887.480957	90.551765
887.437622	73.292068
887.394348	112.075806
887.351074	99.128105
887.307739	99.112228
887.264404	107.713432
887.221130	103.388336
887.177734	111.986092
887.134460	94.742294
887.091125	146.396454
887.047852	99.017036
887.004517	107.609985
886.961182	103.289040
886.917908	120.484581
886.874573	111.860626
886.831238	107.541069
886.787842	107.523849
886.744568	111.806900
886.701172	120.388145
886.657837	133.265533
886.614502	111.753197
886.571167	124.627838
886.527832	94.530113
886.484436	124.587929
886.441101	98.795296
886.397766	107.368996
886.354370	107.351799
886.310974	111.627998
886.267639	133.073608
886.224304	154.512344
886.180908	94.409096
886.137451	133.009689
886.094177	163.018036
886.050781	120.099319
886.007385	128.657242
885.963989	111.485085
885.920593	145.764847
885.877197	132.881958
885.833862	162.861481
885.790405	154.265121
885.747009	149.955963
885.703613	124.229332
885.660217	154.191040
885.616821	158.448746
885.573364	119.887962
885.529968	141.273895
885.486511	149.811966
885.443115	154.067627
885.399719	162.600906
885.356323	136.905151
885.312805	153.993637
885.269409	132.584412
885.225952	158.220566
885.182556	162.470779
885.139099	153.895035
885.095642	141.047867
885.052185	188.033722
885.008728	149.548325
884.965332	166.612885
884.921875	175.129089
884.878418	179.371811
884.835022	166.532867
884.791504	166.506210
884.748108	192.091782
884.704590	162.184875
884.661072	170.693588
884.617615	157.866287
884.574219	174.904907
884.530762	119.428131
884.487244	153.525864
884.443726	140.709518
884.400269	179.056168
884.356812	161.977264
884.313232	183.260712
884.269836	174.708984
884.226257	161.899475
884.182739	191.692368
884.139343	153.329346
884.095825	187.372528
884.052307	157.538040
884.008789	191.569641
883.965332	161.744019
883.921753	174.485336
883.878235	161.692230
883.834717	144.648834
883.791199	148.879379
883.747681	170.120621
883.704163	153.084045
883.660645	161.562851
883.617126	140.282120
883.573547	165.761414
883.530029	148.736420
883.486511	157.210480
883.442932	169.930069
883.399414	157.160141
883.355896	199.603897
883.312317	186.833313
883.268738	195.294464
883.225220	140.080124
883.181641	190.987762
883.138062	178.226715
883.094482	224.869125
883.050964	203.622467
883.007385	195.106949
882.963745	190.834946
882.920227	190.804398
882.876648	186.534424
882.833069	190.743301
882.789429	194.950836
882.745911	211.869156
882.702332	224.545349
882.658691	160.969009
882.615112	203.296722
882.571533	173.621490
882.527954	177.827682
882.484314	177.799210
882.440735	194.701294
882.397156	198.902084
882.353516	224.257935
882.309875	190.377197
882.266296	164.967163
882.222656	181.857758
882.179016	181.828644
882.135437	173.343750
882.091797	160.634338
882.048218	131.022827
882.004517	139.453583
881.960876	194.358719
881.917236	185.878586
881.873657	190.072662
881.829956	206.934875
881.786316	211.124237
881.742737	202.646820
881.699036	173.066452
881.655396	139.275085
881.611694	168.791260
881.568054	168.764252
881.524414	164.518799
881.480774	189.798996
881.437073	160.249054
881.393372	206.603851
881.349731	172.844940
881.306091	198.107605
881.262390	189.647125
881.218689	160.120834
881.174988	151.669144
881.131348	181.131363
881.087646	151.620575
881.044006	143.174301
881.000244	143.151382
880.956604	159.967102
880.912903	168.359467
880.869141	113.624451
880.825500	172.513214
880.781799	143.036835
880.738098	147.220230
880.694397	151.402283
880.650574	138.763214
880.606934	172.375183
880.563232	113.497192
880.519470	130.290726
880.475769	121.865364
880.432007	151.256927
880.388306	134.429077
880.344604	142.808029
880.300842	138.585617
880.257080	138.563431
880.213379	134.343033
880.169617	121.728874
880.125854	100.725014
880.082092	159.455750
880.038391	151.039154
879.994629	130.040680
879.950867	134.214050
879.907104	176.127747
879.863342	150.942474
879.819580	121.573082
879.775818	129.936630
879.732056	125.724998
879.688293	121.514709
879.644531	87.979324
879.600708	100.531700
879.556946	87.951157
879.513123	142.374329
879.469299	121.417480
879.425598	108.839630
879.381775	117.193146
879.338013	87.880791
879.294189	112.971497
879.250427	71.118820
879.206604	75.290222
879.162781	112.917259
879.119019	87.810478
879.075134	79.434853
879.031372	117.043152
878.987549	121.203857
878.943726	91.933037
878.899963	129.521271
878.856140	83.548737
878.812317	104.419205
878.768433	96.050285
878.724609	91.859482
878.680786	104.369064
878.636963	96.004173
878.593079	121.029358
878.549255	87.627922
878.505432	100.130165
878.461609	104.285561
878.417725	75.073586
878.373840	62.551304
878.330017	54.202454
878.286194	112.556305
878.242310	104.202118
878.198425	83.348351
878.154602	62.501255
878.110718	70.823418
878.066895	70.812080
878.022949	74.965500
877.979065	54.133080
877.935181	79.104912
877.891296	91.580505
877.847473	79.079590
877.803589	79.066933
877.759705	54.089767
877.715759	62.401279
877.671936	37.434776
877.627991	79.016319
877.584106	62.371319
877.540222	62.361336
877.496277	87.291893
877.452393	45.717007
877.408447	54.020538
877.364563	54.011894
877.320679	70.619629
877.276672	53.994602
877.232788	58.138725
877.188904	58.129417
877.144958	58.120113
877.101013	53.960037
877.057068	41.501076
877.013184	53.942764
876.969238	58.082909
876.925354	74.666069
876.881348	58.064316
876.837402	37.321083
876.793457	53.899601
876.749512	45.600056
876.705566	41.447960
876.661560	29.008928
876.617676	29.004284
876.573730	41.428059
876.529724	82.842857
876.485779	33.131836
876.441833	37.267349
876.397888	45.541691
876.353821	62.092365
876.309875	53.804771
876.265869	49.657990
876.221924	33.100029
876.177917	49.642094
876.133972	49.634148
876.089966	45.490685
876.046021	70.292534
876.002014	24.805157
875.958008	45.468842
875.913940	33.062954
875.869995	41.322079
875.825989	41.315464
875.781982	28.916195
875.737976	37.172012
875.693970	49.554749
875.649902	41.289013
875.605896	49.538887
875.561890	45.403374
875.517883	57.776863
875.473877	20.631290
875.429810	78.386353
875.385864	28.874561
875.341736	74.236984
875.297791	61.854248
875.253723	61.844349
875.209656	74.201340
875.165588	32.973091
875.121521	61.814651
875.077454	65.925072
875.033447	41.196575
874.989380	61.784969
874.945374	32.946709
874.901306	65.882866
874.857239	49.404240
874.813110	57.629055
874.769104	61.735531
874.725037	74.070778
874.680969	82.287689
874.636841	45.250984
874.592773	78.148277
874.548706	74.023361
874.504639	61.676258
874.460571	65.777473
874.416443	61.656509
874.372437	53.427090
874.328308	53.418533
874.284180	45.193062
874.240051	53.401432
874.196045	82.142899
874.151917	82.129745
874.107788	49.269958
874.063660	73.893105
874.019531	61.567730
873.975464	36.934727
873.931335	61.548019
873.887207	69.743256
873.843079	69.732086
873.798950	73.822159
873.754822	77.910912
873.710754	24.599508
873.666565	73.786705
873.622437	57.380474
873.578308	32.783592
873.534180	61.459396
873.489990	73.739464
873.445862	98.303551
873.401672	86.001831
873.357605	85.988068
873.313416	53.222183
873.269287	65.493744
873.225098	77.761368
873.180969	98.209160
873.136780	73.645073
873.092590	73.633286
873.048462	85.891747
873.004272	106.325134
872.960083	61.331604
872.915894	77.674263
872.871765	110.361542
872.827576	28.607670
872.783386	77.636955
872.739197	89.881035
872.695007	85.781792
872.650818	57.178707
872.606567	69.420174
872.562439	81.657715
872.518188	53.069016
872.474060	81.631569
872.429810	77.537575
872.385559	81.605431
872.341370	93.831223
872.297241	85.658264
872.252930	97.879486
872.208740	93.786156
872.164551	114.156174
872.120361	114.137894
872.076050	114.119621
872.031860	93.726105
871.987610	101.859894
871.943359	118.138557
871.899109	97.754181
871.854919	85.521217
871.810608	85.507523
871.766418	118.062912
871.722168	118.044006
871.677917	93.606117
871.633667	65.106873
871.589417	109.850258
871.545166	113.900543
871.500916	73.210052
871.456665	117.930649
871.412354	113.845840
871.368103	109.762344
871.323853	130.067871
871.279602	121.919106
871.235229	101.582985
871.190979	101.566719
871.146790	121.860550
871.102417	117.779671
871.058105	105.578659
871.013916	64.961075
870.969604	73.069511
870.925293	117.704247
870.880981	101.452934
870.836731	125.781494
870.792419	85.193176
870.748047	85.179527
870.703796	97.332451
870.659485	68.932777
870.615173	68.921738
870.570862	64.857132
870.526550	105.375961
870.482178	101.306816
870.437866	85.084099
870.393555	101.274376
870.349243	64.805222
870.304932	80.993553
870.260559	60.735439
870.216248	64.774094
870.171875	40.477325
870.127563	72.847519
870.083252	60.696545
870.038879	64.732613
869.994507	56.631966
869.950195	60.667389
869.905823	40.438450
869.861511	68.734352
869.817078	64.680801
869.772766	60.628536
869.728394	56.577572
869.684021	68.690338
869.639648	68.679337
869.595276	64.629021
869.550903	48.464005
869.506531	56.532284
869.462158	80.747475
869.417786	32.293816
869.373413	36.324726
869.328979	68.602379
869.284607	52.452244
869.240234	36.307278
869.195862	32.267967
869.151428	28.229948
869.107056	36.289837
869.062622	44.347141
869.018250	48.370949
868.973877	20.151335
868.929443	24.177729
868.885010	40.289761
868.840637	28.198317
868.796143	44.304543
868.751770	32.216324
868.707336	52.343143
868.662903	48.309010
868.618469	36.225956
868.574036	20.122307
868.529663	4.023817
868.485229	16.092690
868.440735	36.202751
868.396301	24.131302
868.351868	24.127438
868.307434	24.123573
868.263000	16.079805
868.218506	20.096539
868.174072	28.130648
868.129578	8.036040
868.085144	16.069508
868.040710	36.150600
867.996277	52.209167
867.951721	32.123573
867.907288	24.088821
867.862793	4.014161
867.818359	20.067587
867.773865	28.090122
867.729370	-4.012232
867.684937	28.081125
867.640442	8.021894
867.595947	16.041216
867.551514	24.057972
867.506958	28.063137
867.462463	24.050264
867.417969	40.077354
867.373535	24.042561
867.328979	36.058064
867.284485	0.000000
867.239929	12.015504
867.195435	16.018106
867.150940	16.015541
867.106445	8.006488
867.061890	28.018217
867.017395	16.007845
866.972839	28.009241
866.928345	12.002038
866.883789	28.000269
866.839294	11.998193
866.794739	7.997514
866.750183	7.996233
866.705688	-3.997476
866.661133	31.974684
866.616638	39.961952
866.572021	19.977776
866.527527	11.984745
866.482910	27.959925
866.438416	27.955446
866.393860	35.936958
866.349304	19.961779
866.304749	43.908878
866.260193	31.928614
866.215637	3.990437
866.171021	23.938787
866.126465	27.924112
866.081909	35.896679
866.037292	19.939404
865.992676	35.885178
865.948181	19.933016
865.903564	31.887714
865.859009	15.941303
865.814392	19.923437
865.769836	23.904293
865.725159	7.966821
865.680603	19.913862
865.635986	15.928537
865.591431	3.981496
865.546753	15.923433
865.502197	19.901102
865.457581	15.918331
865.412964	31.831562
865.368347	19.891539
865.323792	27.843693
865.279114	39.770329
865.234497	15.905583
865.189880	39.757587
865.145264	11.925364
865.100647	23.846909
865.055969	19.869240
865.011353	19.866056
864.966675	3.972574
864.922058	19.859690
864.877441	15.885206
864.832825	0.000000
864.788147	31.760233
864.743469	3.969393
864.698853	15.875028
864.654175	19.840605
864.609497	19.837425
864.564880	23.801096
864.520203	11.898641
864.475586	15.862312
864.430908	27.754599
864.386169	15.857229
864.341492	31.709377
864.296875	7.926074
864.252136	27.736813
864.207520	11.885301
864.162781	23.766792
864.118103	23.762983
864.073425	23.759176
864.028687	23.755367
863.984009	27.710155
863.939331	19.789795
863.894653	19.786625
863.849976	23.740145
863.805237	11.868170
863.760559	15.821691
863.715820	19.773943
863.671143	23.724930
863.626404	23.721127
863.581665	31.623100
863.536987	31.618032
863.492249	31.612967
863.447571	11.852962
863.402832	7.900708
863.358093	3.949721
863.313354	35.541794
863.268616	7.896910
863.223877	3.947822
863.179138	11.841569
863.134338	23.679342
863.089600	31.567396
863.044861	19.726460
863.000183	31.557278
862.955444	11.832083
862.910645	7.886791
862.865906	0.000000
862.821106	3.942131
862.776367	35.473495
862.731628	19.704338
862.686890	23.641417
862.642090	19.698023
862.597290	15.755892
862.552490	15.753366
862.507751	31.501682
862.463013	19.685396
862.418213	23.618689
862.373352	23.614902
862.328613	11.805559
862.283813	15.738222
862.239014	27.537474
862.194275	11.799883
862.149475	27.528646
862.104675	3.932033
862.059814	19.657015
862.015076	11.792318
861.970215	35.371284
861.925415	11.788538
861.880615	27.502178
861.835754	11.784759
861.790955	23.565739
861.746155	19.634968
861.701294	31.410912
861.656494	23.554407
861.611694	0.000000
861.566833	27.471331
861.522034	27.466927
861.477173	7.846436
861.432373	3.922589
861.387512	11.765880
861.342651	7.842662
861.297852	19.603512
861.252991	7.840148
861.208130	15.677782
861.163269	3.918817
861.118408	3.918189
861.073608	31.340485
861.028687	23.501595
860.983826	23.497828
860.938965	19.578382
860.894165	15.660195
860.849243	11.743263
860.804382	15.655173
860.759460	23.478994
860.714600	7.825077
860.669739	-3.911911
860.624817	7.822568
860.580017	11.731970
860.535095	19.550148
860.490173	23.456417
860.445251	-3.908776
860.400391	39.081490
860.355469	-15.630090
860.310608	15.627584
860.265686	7.812539
860.220764	15.622572
860.175903	11.715051
860.130920	19.521954
860.086060	7.807529
860.041138	15.612554
859.996216	11.707538
859.951294	3.901887
859.906372	7.802522
859.861450	35.105721
859.816467	0.000000
859.771606	3.899384
859.726685	7.797518
859.681702	35.083206
859.636780	23.385054
859.591858	15.587535
859.546936	19.481295
859.501953	15.582536
859.457031	0.000000
859.412109	15.577538
859.367065	31.150080
859.322144	27.251949
859.277161	23.355066
859.232239	7.783774
859.187256	11.673788
859.142273	23.343832
859.097290	3.890015
859.052429	31.115126
859.007385	11.666301
858.962402	15.552572
858.917419	7.775039
858.872498	7.773792
858.827454	34.976452
858.782532	7.771298
858.737488	3.885026
858.692505	3.884403
858.647522	23.302679
858.602478	7.766314
858.557495	7.765068
858.512512	0.000000
858.467529	23.287731
858.422485	11.641997
858.377502	19.400217
858.332458	46.553051
858.287537	34.909187
858.242493	11.634529
858.197449	19.387772
858.152405	23.261595
858.107422	7.752621
858.062378	23.254131
858.017334	7.750134
857.972290	19.372227
857.927307	7.747647
857.882263	11.619607
857.837219	27.108067
857.792236	27.103718
857.747131	15.485353
857.702087	15.482869
857.657043	3.870096
857.611938	15.477901
857.566956	7.737710
857.521912	7.736468
857.476807	30.940907
857.431763	11.600979
857.386719	15.465489
857.341614	7.731504
857.296570	15.460527
857.251465	27.051582
857.206421	19.319458
857.161316	11.589815
857.116272	11.587955
857.071167	-3.862032
857.026123	11.584237
856.981018	0.000000
856.935974	19.300867
856.890869	7.719108
856.845764	15.435739
856.800659	0.000000
856.755554	3.857696
856.710510	0.000000
856.665344	11.569375
856.620239	15.423359
856.575134	23.131325
856.530029	23.127613
856.484924	3.853984
856.439758	15.413461
856.394653	-3.852747
856.349548	23.112772
856.304443	19.257551
856.259338	7.701785
856.214233	38.502743
856.169006	-3.849656
856.123962	0.000000
856.078796	3.848421
856.033630	19.239017
855.988525	15.388743
855.943420	11.539705
855.898254	15.383804
855.853027	3.845334
855.807922	19.223583
855.762756	15.376398
855.717590	15.373930
855.672485	15.371463
855.627258	30.737991
855.582153	38.416321
855.536987	26.887110
855.491821	11.521197
855.446655	26.878479
855.401489	34.552498
855.356262	11.515651
855.311096	15.351736
855.265930	26.861225
855.220764	7.673404
855.175537	11.508259
855.130371	26.848293
855.085205	11.504564
855.039978	0.000000
854.994812	15.334495
854.949646	19.165041
854.904358	38.323929
854.859192	11.495334
854.814026	19.155813
854.768799	3.830548
854.723511	-3.829933
854.678406	-3.829318
854.633179	19.143517
854.587952	11.484265
854.542725	19.137369
854.497498	11.480578
854.452209	26.783716
854.407043	11.476892
854.361755	15.300066
854.316589	34.419624
854.271301	7.647577
854.226074	15.292698
854.180908	26.757925
854.135681	19.109735
854.090332	26.749334
854.045105	0.000000
853.999878	15.280425
853.954651	22.916958
853.909363	11.456639
853.864136	3.818267
853.818848	7.635307
853.773621	7.634081
853.728333	22.898565
853.683044	22.894888
853.637817	26.706415
853.592529	0.000000
853.547241	0.000000
853.501953	30.506916
853.456726	15.251008
853.411438	3.812140
853.366089	7.623055
853.320801	11.432747
853.275513	15.241214
853.230225	7.619383
853.184937	19.045399
853.139648	3.808468
853.094421	19.039282
853.049072	3.807245
853.003784	19.033167
852.958435	7.612044
852.913147	15.221643
852.867859	22.828798
852.822571	19.020943
852.777222	34.232201
852.731873	3.802967
852.686584	30.418848
852.641296	11.405236
852.595886	3.801135
852.550598	26.603670
852.505249	18.999569
852.459900	7.598607
852.414551	3.798693
852.369263	18.990416
852.323914	22.784838
852.278564	-3.796863
852.233215	26.573771
852.187927	18.978216
852.142517	0.000000
852.097168	22.766544
852.051819	11.381443
852.006470	3.793205
851.961121	0.000000
851.915771	11.375959
851.870361	3.791377
851.825012	30.326145
851.779602	15.160637
851.734253	11.368650
851.688843	30.311531
851.643555	18.941664
851.598145	0.000000
851.552734	7.574231
851.507324	3.786507
851.461975	3.785899
851.416565	22.711744
851.371216	30.277460
851.325806	18.920372
851.280396	22.700798
851.235046	30.262869
851.189636	11.346752
851.144165	3.781643
851.098755	7.562071
851.053345	15.121712
851.007935	18.899101
850.962524	30.233704
850.917175	3.778606
850.871765	3.777999
850.826294	18.886957
850.780945	26.437492
850.735474	26.433243
850.690002	30.204567
850.644592	0.000000
850.599182	11.323072
850.553711	15.095004
850.508301	15.092578
850.462891	22.635229
850.417419	11.315796
850.372009	0.000000
850.326538	18.853598
850.281067	30.160910
850.235657	15.078031
850.190186	7.537804
850.144714	18.841480
850.099182	37.676907
850.053772	7.534170
850.008301	3.766479
849.962830	11.297623
849.917358	11.295807
849.871887	11.293991
849.826355	7.528117
849.780945	15.053815
849.735474	22.577093
849.690002	3.762244
849.644470	7.523278
849.598999	30.088276
849.553528	11.281290
849.507996	3.759825
849.462524	-3.759221
849.417053	15.034468
849.371521	30.064100
849.325989	26.301859
849.280518	22.540827
849.234985	3.756201
849.189514	7.511193
849.143982	15.019972
849.098450	7.508779
849.052979	18.768929
849.007446	7.506364
848.961914	22.515472
848.916443	11.255927
848.870911	11.254117
848.825378	33.756924
848.779846	7.500332
848.734253	18.747816
848.688721	-7.497921
848.643250	18.741789
848.597656	3.747755
848.552124	29.977219
848.506592	0.000000
848.461060	3.745947
848.415466	7.490690
848.369934	33.702686
848.324341	7.488281
848.278809	29.948309
848.233276	-3.742937
848.187683	7.484670
848.142151	7.483466
848.096558	7.482263
848.050964	18.702648
848.005371	7.479856
847.959839	-3.739327
847.914246	18.693626
847.868652	-3.738124
847.823120	-3.737523
847.777466	0.000000
847.731934	14.945284
847.686340	3.735720
847.640747	18.675596
847.595093	7.469037
847.549500	18.669590
847.503906	33.599857
847.458313	22.396301
847.412720	-7.464233
847.367188	0.000000
847.321533	26.116413
847.275879	-3.730316
847.230286	7.459432
847.184692	26.103811
847.139038	3.728516
847.093445	11.183749
847.047791	11.181951
847.002197	33.540455
846.956543	14.904470
846.910950	18.627592
846.865356	37.249191
846.819641	7.448639
846.773987	18.618603
846.728333	11.169365
846.682739	7.445045
846.637085	11.165771
846.591431	-14.885300
846.545776	18.603632
846.500183	26.040894
846.454468	26.036705
846.408813	14.875723
846.363159	18.591661
846.317505	18.588671
846.271851	7.434272
846.226135	26.015766
846.180481	7.431880
846.134827	14.861368
846.089172	29.717955
846.043457	-3.714147
845.997803	14.854196
845.952148	33.416561
845.906433	25.986477
845.860718	25.982296
845.815002	22.266956
845.769348	11.131686
845.723633	3.709965
845.677979	29.674944
845.632324	18.543856
845.586548	3.708174
845.540894	7.415155
845.495178	3.706981
845.449463	11.119153
845.403748	7.411575
845.358032	14.820765
845.312317	33.341354
845.266602	18.519995
845.220886	14.813611
845.175110	14.811226
845.129456	14.808843
845.083679	11.104844
845.037964	0.000000
844.992249	18.502117
844.946533	7.399655
844.900818	22.195393
844.854980	25.890457
844.809265	14.792166
844.763550	18.487230
844.717773	22.181105
844.672058	14.785023
844.626282	0.000000
844.580505	25.865461
844.534729	29.555769
844.489014	3.693876
844.443237	29.546253
844.397522	11.078061
844.351746	14.768371
844.305969	-3.691498
844.260193	14.763616
844.214417	11.070930
844.168640	22.138294
844.122803	33.202095
844.077087	11.065582
844.031250	7.375867
843.985474	11.062019
843.939697	14.746984
843.893982	11.058457
843.848145	44.226707
843.802368	11.054897
843.756531	18.421862
843.710754	18.418896
843.664917	-7.366372
843.619141	14.730371
843.573303	7.363999
843.527527	14.725628
843.481689	-14.723256
843.435913	-3.680221
843.390137	14.718514
843.344299	18.395180
843.298462	18.392218
843.252625	11.033553
843.206787	11.031776
843.160950	29.413334
843.115112	11.028224
843.069336	7.350965
843.023438	11.024672
842.977661	14.697195
842.931763	33.063362
842.885986	7.346231
842.840088	14.690094
842.794250	18.359659
842.748413	29.370724
842.702576	14.682997
842.656677	7.340316
842.610840	7.339134
842.565002	25.682829
842.519104	14.673538
842.473206	11.003381
842.427429	7.334406
842.381531	10.999836
842.335632	7.332043
842.289795	7.330862
842.243835	-7.329681
842.197998	7.328500
842.152161	21.981958
842.106262	21.978416
842.060303	18.312397
842.014465	36.618893
841.968567	14.645197
841.922668	0.000000
841.876770	-3.660120
841.830933	18.297649
841.784973	14.635761
841.739075	14.633403
841.693237	21.946568
841.647278	10.971516
841.601318	0.000000
841.555420	18.279966
841.509521	10.966212
841.463562	3.654815
841.417664	7.308453
841.371765	3.653637
841.325867	29.224388
841.279907	18.262300
841.234009	14.607486
841.188049	21.907698
841.142090	14.602777
841.096130	-3.650106
841.050232	10.948553
841.004272	10.946789
840.958374	14.593366
840.912415	18.238768
840.866455	25.530159
840.820496	18.232889
840.774536	-10.937970
840.728638	10.936207
840.682678	3.644815
840.636719	-10.932682
840.590759	14.574559
840.544800	29.144421
840.498779	21.854792
840.452820	3.641878
840.406799	18.206455
840.360901	14.562817
840.314880	29.120937
840.268921	18.197653
840.222900	21.833662
840.176941	10.915071
840.130981	25.464394
840.084961	25.460289
840.039001	10.909793
839.992981	14.544045
839.947021	10.906276
839.901001	14.539356
839.854980	14.537012
839.808960	14.534668
839.763000	10.899243
839.716980	18.162477
839.670959	18.159548
839.625000	21.787945
839.578918	7.261477
839.532959	14.520613
839.486877	14.518271
839.440857	18.144913
839.394836	3.628397
839.348816	14.511249
839.302795	18.136135
839.256775	3.626642
839.210754	32.634518
839.164673	7.250945
839.118652	0.000000
839.072571	7.248607
839.026611	7.247437
838.980530	28.985075
838.934509	25.357851
838.888428	14.487864
838.842407	10.864145
838.796265	18.103987
838.750244	3.620214
838.704224	10.858889
838.658142	28.952366
838.612061	21.710772
838.566040	14.471514
838.519958	14.469179
838.473877	14.466846
838.427734	25.312895
838.381714	-3.615545
838.335632	7.229923
838.289551	14.457513
838.243469	21.682770
838.197388	3.613212
838.151245	-7.225258
838.105225	21.672277
838.059143	14.445854
838.013000	-18.054405
837.966919	18.051493
837.920837	10.829147
837.874695	-3.609133
837.828613	14.434205
837.782471	10.823907
837.736450	14.429547
837.690308	21.640829
837.644165	0.000000
837.598083	3.605641
837.551880	14.420237
837.505798	14.417910
837.459717	10.811687
837.413513	14.413257
837.367432	18.013662
837.321289	7.204302
837.275146	10.804709
837.229004	14.403955
837.182861	14.401630
837.136780	21.598959
837.090637	32.393211
837.044434	21.591988
836.998352	14.392336
836.952148	14.390013
836.906006	14.387690
836.859863	0.000000
836.813721	25.170330
836.767578	14.380724
836.721375	25.162205
836.675171	21.564123
836.629028	-7.186881
836.582825	3.592860
836.536743	10.776841
836.490540	14.366802
836.444336	25.137846
836.398132	14.362164
836.351990	7.179923
836.305786	25.125673
836.259644	21.532814
836.213440	3.588223
836.167236	10.762931
836.121094	17.935322
836.074890	10.759456
836.028625	14.343625
835.982422	17.926636
835.936218	10.754246
835.890076	14.336679
835.843872	10.750772
835.797668	3.583012
835.751404	3.582434
835.705261	21.491131
835.658997	3.581277
835.612793	7.161397
835.566528	-7.160241
835.520325	7.159084
835.474121	21.473785
835.427856	10.735159
835.381653	-7.155617
835.335388	14.308922
835.289185	10.729959
835.242920	-10.728226
835.196716	3.575498
835.150513	21.449522
835.104248	10.723028
835.057922	7.147531
835.011719	21.439129
834.965454	0.000000
834.919250	7.144068
834.872986	21.428743
834.826660	21.425282
834.780457	3.570303
834.734192	21.418360
834.687927	3.569150
834.641663	32.117161
834.595398	7.135994
834.549072	28.539366
834.502869	24.967911
834.456543	7.132536
834.410278	32.091228
834.364014	7.130232
834.317688	21.387239
834.271423	10.691893
834.225159	3.563388
834.178833	10.688437
834.132568	14.248947
834.086243	17.808306
834.039978	28.488688
833.993652	17.802551
833.947388	0.000000
833.901062	0.000000
833.854736	17.793924
833.808472	14.232839
833.762146	7.115269
833.715820	28.456478
833.669495	0.000000
833.623169	7.111820
833.576843	10.666007
833.530518	17.773806
833.484192	10.662560
833.437866	17.768061
833.391541	42.636452
833.345215	7.104927
833.298889	7.103779
833.252563	10.653946
833.206177	10.652224
833.159851	7.100335
833.113525	10.648781
833.067200	14.196079
833.020813	7.096892
832.974487	21.287235
832.928101	-3.547299
832.881775	21.280354
832.835388	21.276913
832.789062	21.273474
832.742676	31.905052
832.696289	21.266596
832.649963	10.631579
832.603577	3.543287
832.557190	3.542714
832.510803	10.626424
832.464417	7.083137
832.418091	10.622988
832.371643	7.080847
832.325317	21.239105
832.278870	14.157114
832.232483	14.154825
832.186096	21.228806
832.139709	0.000000
832.093323	24.758930
832.046936	38.900597
832.000549	14.143385
831.954102	3.535274
831.907776	21.208216
831.861328	21.204786
831.814880	14.134238
831.768494	14.131952
831.722046	17.662083
831.675659	10.595536
831.629272	17.656370
831.582825	0.000000
831.536438	21.180792
831.489929	10.588683
831.443542	21.173941
831.397156	10.585258
831.350708	17.639242
831.304260	7.054556
831.257812	31.740366
831.211365	3.526137
831.164917	17.627832
831.118530	10.574988
831.072021	24.670982
831.025574	7.047711
830.979065	7.046571
830.932678	21.136293
830.886169	10.566438
830.839722	24.651031
830.793274	24.647043
830.746826	17.602182
830.700378	17.599335
830.653931	10.557893
830.607422	21.112368
830.560974	28.145269
830.514465	10.552769
830.468018	35.170204
830.421509	24.615158
830.375061	10.547647
830.328552	17.576567
830.282043	17.573721
830.235535	14.056703
830.189087	10.540821
830.142578	28.104305
830.096130	31.612228
830.049622	-3.511901
830.003113	10.533998
829.956543	3.510765
829.910095	-7.020393
829.863525	10.528885
829.817078	24.563421
829.770569	3.508492
829.723999	3.507924
829.677490	10.522070
829.630981	3.506789
829.584473	3.506221
829.537964	24.539576
829.491455	7.010172
829.444885	0.000000
829.398376	17.519756
829.351868	7.006768
829.305298	7.005634
829.258789	17.511250
829.212219	17.508415
829.165710	10.503348
829.119141	7.001098
829.072571	27.999859
829.026001	6.998832
828.979492	13.995397
828.932922	6.996565
828.886353	6.995432
828.839783	0.000000
828.793274	-6.993167
828.746704	24.472122
828.700134	3.495451
828.653564	17.474426
828.606995	24.460236
828.560425	24.456274
828.513794	17.465939
828.467285	13.970488
828.420715	0.000000
828.374146	-3.491491
828.327515	17.454626
828.280945	20.942160
828.234375	6.979589
828.187744	-3.489229
828.141113	-10.465993
828.094604	10.464297
828.047974	6.975068
828.001404	10.460908
827.954773	10.459213
827.908142	3.485840
827.861572	17.426374
827.814941	6.969421
827.768311	31.357313
827.721680	3.483581
827.675110	24.381119
827.628479	13.929811
827.581909	6.963777
827.535278	31.331921
827.488586	0.000000
827.441956	24.361376
827.395386	31.316694
827.348694	10.437206
827.302063	27.828041
827.255493	17.389708
827.208862	-3.477378
827.162170	3.476815
827.115540	10.428753
827.068848	3.475688
827.022217	34.751244
826.975647	3.474561
826.928955	6.947997
826.882263	13.893742
826.835571	13.891490
826.789001	17.361547
826.742249	13.886988
826.695618	10.413552
826.648987	6.941243
826.602295	24.290413
826.555603	24.286476
826.508972	17.344671
826.462280	10.405116
826.415588	10.403429
826.368896	3.467248
826.322266	24.266800
826.275574	20.796741
826.228882	17.327808
826.182190	20.789999
826.135498	27.715506
826.088806	10.391630
826.042053	0.000000
825.995361	24.239275
825.948669	10.386577
825.901978	6.923262
825.855286	13.844278
825.808594	3.460508
825.761841	6.919895
825.715149	38.053249
825.668396	24.211777
825.621765	10.374794
825.575012	-3.457704
825.528320	10.371429
825.481567	20.739494
825.434814	13.824088
825.388123	0.000000
825.341370	20.729406
825.294617	3.454341
825.247864	17.268904
825.201172	13.812881
825.154419	10.357981
825.107727	0.000000
825.060974	20.709244
825.014160	10.352942
824.967468	-10.351263
824.920654	17.249306
824.873962	20.695810
824.827148	6.897484
824.780396	17.240913
824.733643	6.895247
824.686890	13.788257
824.640137	6.893010
824.593384	3.445946
824.546631	-3.445387
824.499817	6.889656
824.453003	27.554152
824.406311	20.662260
824.359497	24.102060
824.312744	3.442593
824.265930	3.442034
824.219177	20.648855
824.172302	17.204586
824.125549	0.000000
824.078735	6.879601
824.031982	3.439243
823.985168	20.632107
823.938354	0.000000
823.891541	3.437569
823.844788	0.000000
823.797974	0.000000
823.751221	27.487162
823.704346	17.176687
823.657532	24.043461
823.610718	20.605335
823.563904	6.867331
823.517090	20.598648
823.470276	6.865101
823.423462	10.295980
823.376648	10.294310
823.329773	17.154398
823.282959	24.012259
823.236084	17.148829
823.189331	27.433672
823.142456	13.714609
823.095642	20.568575
823.048767	6.855078
823.001953	6.853965
822.955017	-3.426426
822.908203	17.129351
822.861328	20.551884
822.814514	0.000000
822.767639	10.272605
822.720764	6.847291
822.673950	20.538538
822.627075	10.267602
822.580200	30.797804
822.533386	10.264268
822.486450	17.104334
822.439636	13.681246
822.392700	23.938292
822.345825	27.353605
822.298950	13.674582
822.252075	20.508541
822.205200	13.670140
822.158325	6.833960
822.111450	0.000000
822.064514	6.831740
822.017639	13.661262
821.970764	23.903324
821.923828	23.899443
821.876953	17.068256
821.830078	17.065485
821.783142	10.237627
821.736267	3.411988
821.689331	6.822868
821.642456	6.821759
821.595520	17.051628
821.548584	0.000000
821.501648	0.000000
821.454712	3.408664
821.407837	10.224330
821.360901	6.815113
821.314026	6.814005
821.267029	20.438694
821.220154	20.435373
821.173157	27.242737
821.126221	10.214366
821.079285	37.446590
821.032349	0.000000
820.985413	30.628162
820.938477	23.818033
820.891541	20.412140
820.844604	3.401470
820.797668	17.004587
820.750671	23.802553
820.703735	23.798685
820.656738	3.399260
820.609802	16.993536
820.562866	13.592619
820.515930	16.988012
820.468933	13.588201
820.421997	16.982491
820.375000	27.167568
820.328003	16.976969
820.281006	3.394842
820.234009	13.577160
820.187073	13.574953
820.140076	23.752306
820.093140	6.785270
820.046082	-6.784167
819.999146	20.349192
819.952148	16.954903
819.905090	10.171288
819.858093	37.288658
819.811096	-3.389327
819.764099	27.110205
819.717163	27.105797
819.670105	23.713717
819.623108	27.096983
819.576111	6.773144
819.529114	6.772043
819.482117	13.541883
819.435059	3.384920
819.388062	16.921848
819.341064	37.222012
819.294006	33.832691
819.247009	6.765438
819.199951	20.293011
819.152954	10.144855
819.105896	23.667479
819.058838	20.283112
819.011841	13.519875
818.964783	16.897095
818.917725	20.273214
818.870667	23.648235
818.823669	6.755540
818.776611	13.508882
818.729553	16.883354
818.682434	10.128365
818.635376	13.502290
818.588379	13.500093
818.541321	0.000000
818.494263	20.243551
818.447144	13.493505
818.400146	13.491309
818.353027	6.744557
818.306030	3.371730
818.258911	10.113544
818.211853	20.223795
818.164795	20.220505
818.117676	0.000000
818.070618	16.844936
818.023499	-6.736878
817.976440	3.367891
817.929321	10.102028
817.882202	6.733590
817.835144	13.464987
817.788025	6.731398
817.740967	0.000000
817.693848	10.093810
817.646729	3.364056
817.599670	0.000000
817.552551	13.451842
817.505432	10.087239
817.458374	13.447464
817.411255	3.361319
817.364075	10.082314
817.316956	10.080673
817.269897	16.798386
817.222717	13.436522
817.175598	13.434334
817.128479	20.148220
817.081360	23.502430
817.034180	-3.356943
816.987061	6.712793
816.939941	10.067551
816.892822	26.842430
816.845642	6.709515
816.798523	13.416844
816.751404	23.475655
816.704224	6.706237
816.657104	16.762863
816.609985	33.520267
816.562744	13.405923
816.515625	13.403740
816.468506	16.751945
816.421265	-3.349844
816.374146	20.095787
816.326965	20.092514
816.279785	20.089241
816.232605	23.433632
816.185486	13.388465
816.138306	16.732855
816.091125	13.384104
816.043945	23.418365
815.996765	6.689872
815.949585	13.377563
815.902405	13.375384
815.855164	16.716507
815.807983	3.342757
815.760803	16.711060
815.713623	13.366670
815.666443	26.728985
815.619263	13.362314
815.572083	-3.340034
815.524841	16.697451
815.477661	30.050512
815.430420	13.353607
815.383240	26.702862
815.335999	16.686569
815.288757	33.367699
815.241577	16.681131
815.194336	3.335682
815.147156	6.670278
815.099915	10.003786
815.052673	20.004311
815.005432	23.334558
814.958252	23.330755
814.911011	6.664844
814.863770	3.331879
814.816528	6.662671
814.769287	19.984755
814.722046	16.651247
814.674866	3.329707
814.627563	6.658328
814.580322	16.643105
814.533081	29.952705
814.485840	6.655072
814.438599	16.634966
814.391296	16.632254
814.344055	23.281361
814.296753	3.325366
814.249573	9.974472
814.202209	26.594255
814.154968	13.294959
814.107727	3.323198
814.060486	0.000000
814.013184	13.288457
813.965881	19.929434
813.918640	19.926184
813.871338	16.602446
813.824097	19.919685
813.776794	6.638812
813.729431	13.275459
813.682190	16.591618
813.634949	13.271129
813.587585	9.951723
813.540283	16.583500
813.492981	26.529272
813.445740	6.631236
813.398376	6.630154
813.351074	9.943609
813.303833	9.941987
813.256531	0.000000
813.209167	13.251657
813.161865	16.561869
813.114502	13.247334
813.067261	0.000000
813.019958	6.621506
812.972595	19.861277
812.925232	13.238690
812.877930	43.018723
812.830566	9.925777
812.783325	6.616106
812.735962	19.845078
812.688599	-13.227893
812.641296	23.145035
812.593933	6.611788
812.546631	16.526772
812.499207	26.438519
812.451904	16.521378
812.404541	26.429890
812.357239	16.515985
812.309875	-6.605316
812.262512	13.208475
812.215149	3.301580
812.167786	0.000000
812.120361	19.803013
812.073059	-6.599926
812.025635	9.898273
811.978333	19.793316
811.930969	19.790085
811.883545	3.297809
811.836182	13.189082
811.788818	13.186929
811.741394	19.777163
811.694031	9.886967
811.646667	13.180470
811.599304	-6.589159
811.551880	16.470207
811.504456	23.054525
811.457092	3.292966
811.409668	9.877284
811.362305	13.167562
811.314941	9.874059
811.267517	-6.581631
811.220154	9.870833
811.172729	6.579481
811.125305	29.602829
811.077881	19.731997
811.030457	16.440645
810.983032	6.575184
810.935608	16.435274
810.888184	13.146071
810.840820	6.571962
810.793396	22.998110
810.745911	9.854723
810.698486	22.990597
810.651062	16.419172
810.603638	13.133192
810.556213	19.696569
810.508728	6.564450
810.461365	16.408445
810.413879	3.281153
810.366394	13.122466
810.318970	26.240644
810.271545	16.397722
810.224060	9.837027
810.176636	9.835419
810.129211	29.501434
810.081726	9.832205
810.034302	9.830598
809.986816	16.381651
809.939331	9.827385
809.891907	9.825779
809.844421	3.274724
809.796936	16.370945
809.749451	19.641922
809.702026	3.273119
809.654480	13.090335
809.607056	16.360245
809.559570	19.629084
809.512085	13.083917
809.464600	16.352222
809.417114	13.079639
809.369568	3.269375
809.322144	13.075363
809.274597	3.268306
809.227173	9.803316
809.179626	13.068951
809.132141	6.533407
809.084656	22.863186
809.037109	19.593811
808.989563	13.060405
808.942078	3.264567
808.894592	6.528067
808.847107	6.526999
808.799561	9.788898
808.752014	9.787297
808.704529	3.261899
808.656982	6.522731
808.609497	32.608322
808.561951	32.602985
808.514404	9.779296
808.466858	9.777697
808.419373	3.258699
808.371826	13.032664
808.324280	13.030533
808.276733	19.542603
808.229187	9.769702
808.181641	6.512069
808.134094	13.022008
808.086548	3.254969
808.039001	0.000000
807.991455	22.777332
807.943909	9.760117
807.896301	22.769878
807.848755	3.252308
807.801208	9.755326
807.753662	9.753730
807.706055	-6.501422
807.658508	-9.750538
807.610901	6.499295
807.563416	9.747347
807.515747	9.745752
807.468201	25.984419
807.420654	16.237604
807.373108	-6.493979
807.325439	3.246458
807.277832	22.721485
807.230347	35.699348
807.182739	-6.489728
807.135132	3.244333
807.087463	19.462811
807.039917	3.243271
806.992310	19.456438
806.944702	3.242209
806.897156	-6.483356
806.849548	12.964590
806.801880	3.240617
806.754272	12.960345
806.706665	16.197779
806.659058	16.195127
806.611450	32.384949
806.563843	0.000000
806.516235	32.374348
806.468567	9.710713
806.420959	9.709124
806.373291	12.943377
806.325684	29.117830
806.278076	22.643492
806.230469	9.702765
806.182800	16.168627
806.135132	16.165977
806.087524	3.232666
806.039856	16.160683
805.992249	3.231607
805.944580	9.693233
805.896973	9.691646
805.849243	29.070175
805.801636	3.229490
805.753967	3.228961
805.706299	6.456864
805.658691	22.595324
805.611023	12.909498
805.563354	25.814766
805.515625	6.452634
805.468018	16.128942
805.420349	12.901040
805.372681	3.224731
805.324951	12.896812
805.277283	9.671024
805.229614	6.446293
805.181885	12.890473
805.134216	3.222090
805.086548	19.329372
805.038879	0.000000
804.991211	6.441013
804.943481	12.879914
804.895752	16.097254
804.848083	9.656770
804.800354	19.310373
804.752686	6.435736
804.705017	6.434681
804.657288	12.867252
804.609619	9.648857
804.561890	22.510309
804.514160	35.367546
804.466431	16.073521
804.418701	-6.428355
804.371033	3.213650
804.323303	12.852494
804.275513	16.062983
804.227844	3.212070
804.180115	22.480803
804.132385	6.422033
804.084595	25.683920
804.036865	3.209964
803.989197	12.837749
803.941467	9.626733
803.893738	32.083847
803.845947	35.286446
803.798218	22.451326
803.750488	-3.206806
803.702759	0.000000
803.654968	12.823018
803.607178	3.205229
803.559448	25.637625
803.511719	0.000000
803.463928	9.610955
803.416199	12.812505
803.368408	6.405201
803.320679	9.606226
803.272888	22.410851
803.225159	16.005125
803.177307	12.801999
803.129578	22.399822
803.081787	6.398899
803.033997	9.596774
802.986206	19.190399
802.938416	19.187250
802.890686	15.986751
802.842896	6.393651
802.795105	-3.196301
802.747253	6.391553
802.699524	15.976260
802.651672	19.168365
802.603882	12.776813
802.556091	19.162073
802.508301	31.931549
802.460510	12.770523
802.412720	15.960533
802.364929	3.191583
802.317078	9.573176
802.269226	3.190535
802.221436	6.380023
802.173645	9.568463
802.125793	19.133783
802.078003	19.130644
802.030151	12.751668
801.982361	6.374787
801.934509	9.560611
801.886719	15.931735
801.838867	12.743296
801.791016	19.111805
801.743164	3.184778
801.695312	15.921274
801.647522	15.918659
801.599609	6.366418
801.551819	9.548059
801.503967	22.275146
801.456055	19.089846
801.408203	-3.181118
801.360352	9.541788
801.312500	6.360147
801.264709	-3.179551
801.216797	-12.716116
801.168945	15.892534
801.121094	12.711939
801.073181	12.709851
801.025391	15.884704
800.977478	9.529257
800.929565	9.527691
800.881714	12.701501
800.833862	6.349707
800.785950	9.522996
800.738037	3.173810
800.690247	12.693155
800.642334	6.345535
800.594421	12.688985
800.546570	28.545525
800.498596	12.684815
800.450745	19.024096
800.402832	3.170161
800.354980	22.187485
800.307068	3.169120
800.259155	9.505796
800.211243	22.176546
800.163330	25.340458
800.115417	19.002220
800.067505	-6.333032
800.019653	12.663982
799.971680	9.496426
799.923767	-3.164955
799.875854	25.315477
799.827942	15.819572
799.779968	6.326788
799.732117	6.325748
799.684143	-3.162354
799.636230	22.132839
799.588257	9.483943
799.540344	25.286356
799.492371	18.961649
799.444458	9.479266
799.396545	6.318471
799.348572	18.952297
799.300598	15.790983
799.252686	12.630710
799.204712	12.628633
799.156738	15.783195
799.108826	6.312239
799.060852	6.311201
799.012878	6.310163
798.964966	9.463688
798.916992	-3.154044
798.869019	18.921150
798.821045	31.530062
798.773071	15.762438
798.725098	25.215752
798.677124	28.363054
798.629150	37.811184
798.581116	18.902481
798.533203	12.599581
798.485168	3.149377
798.437256	15.744294
798.389221	40.928429
798.341248	0.000000
798.293274	3.147305
798.245300	9.440360
798.197266	12.585076
798.149292	3.145751
798.101257	15.726168
798.053223	9.434148
798.005310	6.288397
797.957275	28.293129
797.909241	15.715817
797.861206	18.855877
797.813232	21.994902
797.765198	-9.424835
797.717224	18.846567
797.669189	9.421733
797.621155	21.980423
797.573120	6.279087
797.525146	12.556107
797.477112	3.138510
797.429016	15.689966
797.381042	34.512241
797.333008	15.684800
797.284912	6.272887
797.236877	0.000000
797.188843	21.947876
797.140808	3.134894
797.092773	0.000000
797.044800	9.401587
796.996704	-6.266692
796.948608	0.000000
796.900635	0.000000
796.852539	3.131798
796.804504	3.131282
796.756409	15.653833
796.708374	28.172258
796.660339	9.389206
796.612244	6.258440
796.564209	18.772226
796.516113	9.384567
796.468018	25.021389
796.419983	12.508634
796.371887	15.633216
796.323792	15.630640
796.275757	6.251226
796.227600	0.000000
796.179504	3.124583
796.131470	9.372205
796.083374	6.247107
796.035278	6.246078
795.987183	21.857670
795.939087	6.244020
795.891052	18.728971
795.842896	3.120981
795.794800	21.843266
795.746643	18.719713
795.698547	9.358314
795.650452	12.475695
795.602356	6.236819
795.554260	18.707375
795.506165	18.704290
795.458069	15.584339
795.409912	15.581770
795.361816	9.347521
795.313660	15.576633
795.265564	12.459252
795.217407	3.114300
795.169312	12.455144
795.121216	18.679636
795.073059	15.563797
795.024902	12.448984
794.976746	9.335198
794.928589	0.000000
794.880493	12.442827
794.832336	9.330582
794.784180	6.219362
794.736023	9.327504
794.687866	12.434621
794.639709	12.432570
794.591553	6.215260
794.543396	12.428470
794.495239	6.213210
794.447144	6.212185
794.398926	18.633480
794.350830	15.525339
794.302612	18.627335
794.254456	9.312131
794.206238	24.828251
794.158081	31.030193
794.109924	0.000000
794.061707	15.509978
794.013550	15.507419
793.965393	9.302917
793.917236	12.401841
793.869019	9.299847
793.820862	9.298312
793.772583	-3.098926
793.724426	0.000000
793.676270	12.391612
793.628052	18.584351
793.579895	3.096881
793.531677	9.289108
793.483459	9.287576
793.435242	12.381390
793.387085	6.189673
793.338806	27.848932
793.290649	18.562889
793.242371	18.559826
793.194214	9.278380
793.145996	12.369132
793.097778	15.458862
793.049561	0.000000
793.001343	12.363007
792.953064	0.000000
792.904846	6.179462
792.856628	15.446105
792.808411	6.177422
792.760193	12.352803
792.711914	33.964600
792.663696	21.610268
792.615417	18.520027
792.567200	-6.172323
792.518982	9.256955
792.470703	3.085142
792.422485	6.169265
792.374207	21.588861
792.325928	15.418069
792.277710	15.415522
792.229492	6.165190
792.181152	12.328343
792.132935	21.571037
792.084656	3.081068
792.036377	0.000000
791.988098	6.160100
791.939819	12.318164
791.891602	6.158064
791.843323	6.157047
791.795044	6.156029
791.746765	12.310024
791.698486	21.538982
791.650208	0.000000
791.601929	15.379904
791.553650	15.377362
791.505371	0.000000
791.457031	12.297824
791.408752	-6.147896
791.360474	0.000000
791.312195	27.656385
791.263916	15.362120
791.215576	12.287664
791.167297	15.357041
791.118958	15.354503
791.070679	12.281571
791.022339	9.209656
790.974060	9.208134
790.925720	18.413221
790.877441	12.273452
790.829102	12.271422
790.780823	15.336742
790.732422	9.200523
790.684143	3.066334
790.635803	9.197481
790.587524	9.195960
790.539185	9.194440
790.490845	6.128613
790.442505	0.000000
790.394104	15.316464
790.345825	12.251145
790.297424	12.249119
790.249146	9.185320
790.200745	12.245068
790.152405	21.425323
790.104065	9.180762
790.055725	9.179244
790.007385	15.296209
789.958984	12.234942
789.910706	-6.116459
789.862305	9.173171
789.813904	6.114436
789.765564	27.510408
789.717224	12.224825
789.668823	3.055701
789.620483	15.275975
789.572083	24.437515
789.523682	3.054184
789.475342	12.214714
789.427002	0.000000
789.378601	18.316008
789.330200	15.260814
789.281799	9.154973
789.233459	6.102305
789.185059	6.101295
789.136658	12.200570
789.088257	24.397100
789.039856	15.245664
788.991455	9.145885
788.943115	3.048123
788.894714	12.190475
788.846252	24.376913
788.797913	9.139830
788.749451	12.184422
788.701050	-3.045601
788.652649	24.360773
788.604248	-12.178370
788.555847	12.176353
788.507385	0.000000
788.458984	9.129241
788.410522	3.042576
788.362122	18.252436
788.313660	-9.124706
788.265259	18.246389
788.216858	24.324490
788.168396	21.280403
788.119995	30.395542
788.071533	15.195253
788.023071	6.077095
787.974670	9.114132
787.926208	12.150163
787.877747	9.111113
787.829346	3.036534
787.780884	3.036031
787.732422	9.106585
787.684021	12.140101
787.635559	15.172612
787.587097	9.102059
787.538635	27.301653
787.490173	18.198086
787.441711	15.162559
787.393250	0.000000
787.344788	9.094520
787.296326	9.093013
787.247803	6.061004
787.199341	12.119999
787.150879	-6.058995
787.102417	18.173971
787.053894	12.113973
787.005432	15.139956
786.956909	0.000000
786.908508	9.080962
786.859985	12.105943
786.811523	6.051968
786.763000	15.127411
786.714478	12.099923
786.666016	21.171354
786.617493	9.071933
786.569031	9.070429
786.520508	-3.022975
786.471985	3.022474
786.423523	12.087890
786.375000	24.171770
786.326477	6.041941
786.277954	6.040938
786.229431	12.079873
786.180908	3.019467
786.132446	21.132767
786.083923	24.147728
786.035339	0.000000
785.986816	9.052394
785.938354	0.000000
785.889771	3.016464
785.841248	12.063853
785.792725	21.108240
785.744202	15.074813
785.695679	12.057850
785.647095	12.055849
785.598572	12.053849
785.550049	6.025924
785.501465	9.037387
785.452942	3.011962
785.404358	18.068775
785.355835	12.043852
785.307251	18.062778
785.258728	-6.019927
785.210205	18.056784
785.161621	0.000000
785.113037	15.042326
785.064453	9.023897
785.015930	3.007467
784.967346	6.013935
784.918762	12.025872
784.870239	15.029845
784.821594	9.016410
784.773071	15.024856
784.724487	15.022362
784.675903	12.015894
784.627319	9.010424
784.578735	24.023808
784.530151	9.007432
784.481567	-3.001979
784.432983	15.007401
784.384399	9.002946
784.335754	9.001451
784.287170	8.999956
784.238586	17.996922
784.190002	5.997978
784.141357	26.986418
784.092773	17.987957
784.044128	11.989980
783.995605	14.984984
783.946960	5.992998
783.898376	11.984006
783.849670	5.991007
783.801086	-2.995006
783.752502	8.983525
783.703857	17.964066
783.655212	17.961081
783.606628	17.958097
783.558044	0.000000
783.509338	20.944151
783.460693	14.957623
783.412109	14.955137
783.363464	-5.981061
783.314819	8.970100
783.266174	11.958146
783.217529	26.901358
783.168884	20.919800
783.120300	20.916323
783.071594	17.925297
783.022949	20.909370
782.974304	8.959669
782.925659	2.986060
782.877014	2.985564
782.828369	11.940269
782.779663	11.938284
782.731018	14.920374
782.682373	8.950736
782.633667	14.915414
782.585022	8.947761
782.536377	11.928363
782.487671	23.852760
782.439026	14.905496
782.390320	11.922414
782.341614	2.980108
782.292969	-2.979612
782.244263	17.874701
782.195557	2.978621
782.146912	14.890629
782.098206	20.843412
782.049500	5.954270
782.000854	14.883200
781.952087	11.904579
781.903442	0.000000
781.854736	8.925465
781.806030	5.949320
781.757324	17.844990
781.708618	5.947340
781.659912	17.839052
781.611206	5.945362
781.562500	17.833117
781.513794	5.943383
781.465027	0.000000
781.416382	11.882811
781.367615	-2.970208
781.318909	5.939428
781.270203	8.907660
781.221436	11.874903
781.172791	2.968231
781.124023	14.838688
781.075256	11.868975
781.026550	11.866999
780.977844	20.763790
780.929077	17.794573
780.880310	17.791611
780.831604	17.788649
780.782837	14.821405
780.734131	11.855150
780.685364	17.779766
780.636597	11.851203
780.587891	5.924615
780.539062	11.847257
780.490356	8.883964
780.441589	2.960828
780.392822	17.762009
780.344055	2.959842
780.295288	14.796745
780.246521	8.876569
780.197815	17.750179
780.148987	-2.957871
780.100281	5.914756
780.051453	5.913771
780.002686	17.738358
779.953918	2.955900
779.905151	5.910816
779.856384	11.819662
779.807556	17.726540
779.758789	14.769656
779.710022	-2.953439
779.661194	8.858841
779.612427	2.952455
779.563599	14.759815
779.514832	11.805884
779.466003	5.901958
779.417236	17.702925
779.368408	5.899992
779.319580	8.848513
779.270813	0.000000
779.221985	11.794085
779.173218	14.740149
779.124390	-8.842615
779.075562	17.682281
779.026733	5.893112
778.977966	17.676388
778.929138	14.727867
778.880310	14.725412
778.831482	11.778366
778.782593	14.720503
778.733826	8.830829
778.684937	5.886238
778.636108	11.770513
778.587341	2.942137
778.538513	11.766588
778.489624	11.764626
778.440796	8.821998
778.391968	8.820527
778.343079	8.819056
778.294250	2.939195
778.245422	17.632229
778.196594	23.505716
778.147705	5.875449
778.098816	17.623407
778.049988	8.810234
778.001099	0.000000
777.952271	0.000000
777.903381	11.741100
777.854553	5.869571
777.805664	32.277252
777.756836	8.801418
777.707886	23.466534
777.659058	14.664136
777.610168	23.458704
777.561279	20.522940
777.512451	17.588156
777.463562	8.792610
777.414673	8.791143
777.365784	8.789676
777.316895	0.000000
777.268005	2.928914
777.219116	17.570551
777.170227	14.639682
777.121277	14.637239
777.072388	17.561754
777.023560	17.558823
776.974670	2.925982
776.925720	11.701974
776.876831	-2.925005
776.827881	2.924517
776.778992	11.696114
776.730103	11.694160
776.681152	17.538313
776.632263	14.612820
776.583313	23.376608
776.534424	5.843176
776.485535	5.842200
776.436584	5.841225
776.387695	17.520746
776.338684	11.678547
776.289795	14.595746
776.240906	17.511969
776.191956	2.918174
776.143005	17.506119
776.094055	2.917199
776.045105	5.833424
775.996216	14.581123
775.947266	8.747212
775.898315	2.915250
775.849365	8.744289
775.800415	8.742828
775.751465	23.310314
775.702515	8.739907
775.653564	0.000000
775.604553	0.000000
775.555664	8.735526
775.506653	8.734067
775.457703	14.554345
775.408752	14.551912
775.359802	5.819792
775.310852	17.456459
775.261841	20.362463
775.212891	0.000000
775.163879	2.907951
775.114929	0.000000
775.065918	-11.627915
775.016968	8.719479
774.968018	14.530035
774.918945	20.338648
774.869995	11.620141
774.820984	20.331846
774.772034	17.424383
774.723022	11.614313
774.674011	-5.806186
774.625061	20.318251
774.576050	11.608487
774.527039	5.803273
774.478027	8.703454
774.429016	5.801332
774.380005	0.000000
774.330994	11.598783
774.281982	14.496054
774.232971	20.291080
774.183960	17.389444
774.134949	8.693268
774.085876	5.794542
774.036926	8.690360
773.987915	17.377811
773.938904	8.687452
773.889832	23.162663
773.840820	2.894848
773.791809	20.260548
773.742737	8.681639
773.693665	20.253767
773.644653	5.785822
773.595581	-5.784854
773.546570	17.351658
773.497559	11.565836
773.448486	17.345850
773.399475	2.890491
773.350403	23.120058
773.301331	17.337141
773.252319	5.778080
773.203247	11.554224
773.154236	5.776145
773.105103	23.100712
773.056030	0.000000
773.007019	2.886622
772.957947	2.886139
772.908875	5.771311
772.859802	20.196207
772.810730	8.654068
772.761658	8.652618
772.712585	17.302340
772.663513	11.532961
772.614441	17.296545
772.565369	14.411373
772.516296	0.000000
772.467163	28.813091
772.418091	2.880826
772.368958	17.282063
772.319946	14.399307
772.270813	5.758758
772.221741	5.757793
772.172668	8.635242
772.123535	17.267591
772.074402	28.774498
772.025330	11.507871
771.976257	8.629457
771.927124	14.380018
771.877991	14.377608
771.828918	5.750080
771.779785	2.874558
771.730652	2.874076
771.681580	8.620784
771.632446	0.000000
771.583313	22.981050
771.534180	0.000000
771.485046	17.230011
771.435974	22.969498
771.386780	0.000000
771.337708	2.870224
771.288513	2.869743
771.239380	20.084835
771.190247	17.212687
771.141113	14.341501
771.091980	2.867819
771.042908	5.734677
770.993713	-2.866858
770.944519	-2.866377
770.895447	20.061274
770.846313	8.596247
770.797119	5.729870
770.747925	8.593364
770.698792	22.911793
770.649658	2.863494
770.600525	2.863013
770.551331	14.312666
770.502197	17.172318
770.453003	2.861573
770.403870	5.722186
770.354675	5.721226
770.305481	-2.860133
770.256287	17.157917
770.207153	17.155039
770.157959	2.858693
770.108765	5.716427
770.059631	8.573202
770.010437	2.857255
769.961243	22.854200
769.912048	14.281478
769.862854	2.855816
769.813660	0.000000
769.764465	5.709715
769.715271	8.563135
769.666077	17.123396
769.616882	17.120522
769.567688	11.411765
769.518494	25.672161
769.469238	2.851984
769.420044	11.406019
769.370850	14.255130
769.321594	11.402189
769.272461	11.400274
769.223206	2.849590
769.173950	14.245558
769.124817	11.394533
769.075562	2.848155
769.026306	5.695353
768.977112	11.388793
768.927856	11.386880
768.878662	14.231210
768.829407	0.000000
768.780212	2.845286
768.730957	-11.379231
768.681763	11.377320
768.632446	8.531557
768.583252	2.843374
768.533997	14.214484
768.484741	2.842419
768.435486	14.209708
768.386230	19.890249
768.337036	14.204933
768.287781	14.202546
768.238525	5.680064
768.189209	17.037329
768.140015	5.678155
768.090759	5.677201
768.041443	8.514370
767.992188	14.188231
767.942932	11.348678
767.893677	5.673385
767.844421	5.672431
767.795105	8.507216
767.745850	5.670525
767.696594	8.504356
767.647278	2.834309
767.598022	17.002995
767.548767	0.000000
767.499451	-2.832880
767.450134	11.329614
767.400879	14.159636
767.351562	2.831451
767.302307	16.985847
767.252991	2.830499
767.203735	14.150113
767.154419	5.659093
767.105103	14.145354
767.055786	19.800165
767.006470	22.624952
766.957214	11.310574
766.907837	16.963007
766.858582	8.480077
766.809265	11.304867
766.759949	8.477223
766.710632	5.650532
766.661316	19.773533
766.612000	-2.824315
766.562683	22.590719
766.513367	-5.646729
766.464050	8.468669
766.414673	2.822415
766.365356	16.931639
766.316040	14.107325
766.266724	5.641980
766.217346	5.641030
766.168030	16.920242
766.118713	11.278263
766.069336	22.552731
766.020020	19.730316
765.970703	11.272569
765.921326	2.817668
765.871948	5.634387
765.822632	19.717033
765.773254	16.897469
765.723938	8.447312
765.674561	2.815297
765.625244	5.629645
765.575867	28.143486
765.526489	8.441624
765.477112	5.626801
765.427795	11.251708
765.378418	5.624907
765.329041	16.871878
765.279663	14.057529
765.230286	11.244129
765.180908	14.052794
765.131531	11.240342
765.082153	14.048060
765.032715	25.282249
764.983337	8.425997
764.934021	8.424577
764.884644	25.269472
764.835205	14.036231
764.785828	5.613546
764.736450	5.612600
764.687073	16.834965
764.637634	16.832127
764.588257	8.414645
764.538818	11.217636
764.489441	-2.803936
764.440063	11.213856
764.390625	14.014956
764.341187	14.012594
764.291809	11.208186
764.242432	2.801574
764.192932	5.602204
764.143555	-2.800630
764.094116	25.201418
764.044739	5.599371
763.995300	11.196854
763.945862	5.597483
763.896484	13.991347
763.847046	2.797798
763.797607	2.797326
763.748169	13.984271
763.698730	5.592765
763.649292	22.367287
763.599854	-2.795439
763.550415	-2.794968
763.500977	11.177986
763.451538	13.970125
763.402100	22.348431
763.352661	8.379248
763.303162	16.755669
763.253723	27.921404
763.204285	13.958346
763.154846	13.955992
763.105408	8.372182
763.055908	5.580513
763.006470	22.318285
762.957031	5.578630
762.907532	11.155377
762.858032	13.941868
762.808594	8.363709
762.759094	13.937162
762.709656	2.786962
762.660156	2.786492
762.610718	11.144086
762.561218	2.785551
762.511780	22.280647
762.462280	19.492275
762.412781	5.568282
762.363342	16.702024
762.313843	2.783201
762.264343	8.348192
762.214783	11.129044
762.165344	8.345374
762.115845	5.562643
762.066345	8.342556
762.016846	5.560764
761.967346	2.779913
761.917847	8.338329
761.868286	13.894869
761.818848	-2.778505
761.769287	25.002317
761.719788	8.332698
761.670288	13.885484
761.620789	13.883139
761.571228	8.328476
761.521729	2.775690
761.472229	11.100883
761.422668	16.648512
761.373169	0.000000
761.323608	5.547628
761.274109	13.866728
761.224609	5.545754
761.175049	8.317225
761.125488	22.175520
761.075989	0.000000
761.026489	19.397022
760.976929	2.770535
760.927307	11.080266
760.877808	5.539196
760.828308	19.383911
760.778687	-5.537324
760.729187	0.000000
760.679626	24.909534
760.630066	0.000000
760.580566	19.367533
760.530945	13.831613
760.481384	13.829274
760.431824	2.765387
760.382263	22.119356
760.332703	11.057808
760.283142	8.291954
760.233521	5.527034
760.184021	11.052199
760.134460	5.525165
760.084839	5.524230
760.035278	2.761648
759.985657	5.522362
759.936096	5.521428
759.886536	5.520494
759.836975	11.039120
759.787354	8.277940
759.737732	8.276539
759.688232	-5.516759
759.638611	-8.273739
759.588989	13.787231
759.539368	11.027919
759.489807	13.782565
759.440186	19.292326
759.390564	8.266741
759.341003	19.285797
759.291443	19.282534
759.241760	0.000000
759.192200	16.522291
759.142578	0.000000
759.092957	2.752783
759.043335	24.770855
758.993713	8.255554
758.944092	19.259697
758.894470	5.501839
758.844849	5.500908
758.795227	0.000000
758.745667	19.246658
758.695984	-2.749057
758.646362	10.994366
758.596741	13.740630
758.547058	10.990643
758.497437	-2.747195
758.447815	2.746730
758.398193	5.492530
758.348511	10.983199
758.298889	8.236004
758.249268	10.979479
758.199646	2.744405
758.149963	10.975760
758.100281	2.743475
758.050659	-2.743010
758.000977	10.970182
757.951355	8.226242
757.901672	8.224849
757.851990	21.929214
757.802368	13.703436
757.752686	13.701114
757.703003	8.219275
757.653320	0.000000
757.603699	19.171810
757.554016	5.476731
757.504333	10.951607
757.454651	0.000000
757.404968	5.473947
757.355286	16.419058
757.305603	10.944182
757.255920	5.471164
757.206238	5.470236
757.156616	13.673272
757.106873	2.734191
757.057190	-2.733727
757.007446	16.399582
756.957764	13.664001
756.908081	8.197010
756.858398	19.123114
756.808716	8.194230
756.758972	2.730947
756.709290	5.460968
756.659607	2.730021
756.609924	5.459115
756.560120	13.645473
756.510437	2.728632
756.460693	16.369013
756.411072	16.366236
756.361328	8.181729
756.311584	8.180342
756.261902	21.810543
756.212097	5.451711
756.162415	24.528536
756.112671	10.899721
756.062927	2.724468
756.013184	13.620028
755.963501	19.064804
755.913757	13.615406
755.864014	2.722619
755.814270	13.610785
755.764587	24.495253
755.714844	-5.442466
755.665100	-8.162313
755.615356	16.321854
755.565552	2.719847
755.515808	5.438771
755.466064	10.875695
755.416321	13.592311
755.366577	-2.718001
755.316833	21.740313
755.267029	10.868311
755.217285	8.149849
755.167542	16.296930
755.117737	16.294163
755.067993	10.860929
755.018188	10.859085
754.968445	8.142931
754.918701	5.427698
754.868896	0.000000
754.819092	16.277563
754.769348	2.712466
754.719543	10.848022
754.669739	10.846180
754.619995	5.422168
754.570190	5.421247
754.520386	-2.710163
754.470642	5.419405
754.420837	13.546210
754.371033	8.126345
754.321228	5.416643
754.271484	10.831445
754.221619	-2.707401
754.171875	13.534704
754.122070	18.945364
754.072205	16.236124
754.022400	13.527803
753.972595	10.820403
753.922852	10.818563
753.872986	16.225086
753.823181	16.222328
753.773376	10.813046
753.723572	10.811209
753.673706	2.702343
753.623901	10.807532
753.574097	10.805695
753.524292	13.504821
753.474426	10.802019
753.424561	16.200274
753.374756	8.098759
753.324951	-8.097382
753.275085	13.493340
753.225281	16.189255
753.175415	21.582001
753.125610	8.091874
753.075745	8.090497
753.025879	2.696374
752.976074	10.783659
752.926208	10.781825
752.876343	5.389995
752.826477	8.083617
752.776672	24.246725
752.726807	21.548977
752.676941	2.693164
752.627075	16.156233
752.577209	8.076741
752.527344	16.150734
752.477539	16.147984
752.427673	18.836109
752.377808	10.761659
752.327881	18.829697
752.278015	13.447494
752.228149	13.445204
752.178284	10.754333
752.128357	13.440626
752.078491	10.750670
752.028625	5.374420
751.978760	26.867525
751.928833	5.372590
751.878967	10.743350
751.829102	10.741520
751.779175	26.849228
751.729309	21.475723
751.679382	24.156075
751.629456	16.101307
751.579590	13.415470
751.529663	16.095821
751.479797	2.682180
751.429871	13.408615
751.379944	2.681266
751.330078	16.084856
751.280212	24.123175
751.230225	18.759272
751.180298	8.038318
751.130371	5.357965
751.080505	16.071157
751.030579	26.780699
750.980652	8.032840
750.930725	5.354314
750.880859	8.030103
750.830872	10.704978
750.780945	8.027366
750.731018	8.025997
750.681091	5.349752
750.631165	2.674420
750.581177	5.347929
750.531311	18.714560
750.481384	8.019158
750.431396	-5.345194
750.381409	18.704988
750.331482	10.686742
750.281616	18.698610
750.231628	2.670774
750.181641	24.032871
750.131714	-5.339727
750.081787	8.008224
750.031799	5.337906
